Generic               	r12696.gen
Date                  	2004-11-24T12:53:36
Experiment            	STI
Code                  	b04
Low Wavelength        	164
High Wavelength       	279
Interval (nm)         	1
Cut off (nm)          	168
Machine               	12.1
Dwell time (s)        	1
Cell ID               	c3
Pathlength (cm)       	0.000377
Concentration (mg/ml) 	18.16
Cut off (nm)          	168
Smoothing window      	7
Temperature           	4
PDB                   	1avu
M.R.W. (Da)           	111.02
Calibration file      	r12686.gen
Units                 	DE(c192::c290)
Zeroed between        	263	270
Baselines             	r12701.gen::r12702.gen::r12703.gen
Samples               	r12696.gen::r12697.gen::r12699.gen::r12700.gen
Description           	STI (b4) C3                                                 ' ,
279.0	   -3.05477E-02	    3.83375E+02	   -3.05477E-02	    9.98628E-03	    3.36441E-02	    3.51109E-02
278.0	   -4.38229E-02	    3.82575E+02	   -4.38229E-02	    9.98770E-03	    5.58354E-02	    1.39537E-02
277.0	    5.07665E-02	    3.81850E+02	    5.07665E-02	    1.00518E-02	    2.13929E-02	    3.29411E-02
276.0	   -4.29068E-02	    3.81075E+02	   -1.44324E-02	    9.76044E-03	    6.74188E-02	    1.39579E-02
275.0	   -1.29249E-02	    3.80375E+02	   -7.42669E-03	    9.29609E-03	    5.88672E-02	    3.51319E-02
274.0	   -3.65972E-02	    3.79700E+02	   -2.87940E-02	    9.26140E-03	    3.06021E-02	    7.08659E-02
273.0	    2.48587E-02	    3.79025E+02	   -2.90972E-03	    8.97388E-03	    2.40650E-02	    2.37996E-02
272.0	   -4.85018E-02	    3.78400E+02	   -2.10595E-02	    9.27509E-03	    2.35027E-02	    6.48663E-02
271.0	    2.21419E-02	    3.77725E+02	   -1.63318E-02	    8.75024E-03	    2.01782E-02	    1.85411E-02
270.0	   -8.10346E-02	    3.77125E+02	   -2.61659E-02	    8.75264E-03	    5.39589E-02	    1.09918E-02
269.0	    2.88869E-02	    3.76525E+02	   -1.21959E-02	    8.76337E-03	    1.34885E-02	    2.94040E-02
268.0	   -2.23954E-02	    3.75925E+02	   -4.57520E-03	    8.06227E-03	    2.93527E-02	    4.69465E-02
267.0	    1.29817E-02	    3.75425E+02	    7.66222E-03	    8.53346E-03	    2.59815E-02	    2.94127E-02
266.0	    2.00663E-02	    3.74925E+02	    1.30634E-02	    8.54139E-03	    3.42415E-02	    2.38245E-02
265.0	   -1.83897E-02	    3.74400E+02	    1.13960E-02	    8.36714E-03	    1.76400E-02	    3.51843E-02
264.0	    5.48389E-02	    3.73850E+02	   -8.48878E-03	    8.02236E-03	    5.38778E-02	    1.85605E-02
263.0	   -6.34411E-02	    3.73350E+02	   -1.08561E-02	    8.02513E-03	    1.36019E-02	    1.85632E-02
262.0	   -1.25778E-02	    3.72925E+02	   -1.42275E-03	    7.85012E-03	    3.17337E-02	    1.85660E-02
261.0	    3.38708E-02	    3.72450E+02	   -4.66133E-03	    7.56053E-03	    5.05768E-02	    3.18710E-02
260.0	    2.18906E-02	    3.72050E+02	    2.84776E-02	    7.33047E-03	    5.34192E-02	    3.18757E-02
259.0	    1.56756E-02	    3.71725E+02	    4.43161E-02	    7.86530E-03	    3.69433E-02	    2.38493E-02
258.0	    6.88988E-02	    3.71325E+02	    4.85503E-02	    7.16304E-03	    3.21451E-02	    1.85771E-02
257.0	    7.41975E-02	    3.71000E+02	    5.47561E-02	    6.98895E-03	    7.70164E-02	    1.10132E-02
256.0	    3.65757E-02	    3.70675E+02	    6.61001E-02	    6.81527E-03	    3.38481E-02	    3.30444E-02
255.0	    5.47916E-02	    3.70400E+02	    5.57208E-02	    6.99853E-03	    1.71843E-02	    2.38635E-02
254.0	    8.50087E-02	    3.70175E+02	    5.70837E-02	    7.06143E-03	    2.23918E-02	    4.11125E-02
253.0	    3.61259E-02	    3.69925E+02	    5.44610E-02	    6.95190E-03	    2.42588E-02	    2.94742E-02
252.0	    6.80334E-02	    3.69725E+02	    6.32272E-02	    7.19244E-03	    1.76742E-02	    1.85937E-02
251.0	    5.36061E-02	    3.69525E+02	    8.52578E-02	    6.72543E-03	    3.64489E-02	    1.85964E-02
250.0	    1.39799E-01	    3.69375E+02	    1.10434E-01	    6.84854E-03	    3.67903E-02	    5.08901E-02
249.0	    1.25844E-01	    3.69200E+02	    1.03115E-01	    7.02944E-03	    3.59719E-02	    3.19280E-02
248.0	    7.37820E-02	    3.69075E+02	    9.23997E-02	    6.85729E-03	    2.29537E-02	    1.10279E-02
247.0	    4.46548E-02	    3.68975E+02	    6.55008E-02	    6.86062E-03	    3.84387E-02	    1.86075E-02
246.0	    7.78819E-02	    3.68925E+02	    6.88590E-02	    7.22111E-03	    1.33092E-02	    2.95049E-02
245.0	    7.25250E-02	    3.68875E+02	    6.35371E-02	    7.57390E-03	    4.34572E-02	    1.86130E-02
244.0	    8.12773E-02	    3.68825E+02	    6.19396E-02	    7.93300E-03	    7.35756E-02	    2.95136E-02
243.0	    7.78283E-03	    3.68800E+02	    5.15122E-02	    7.99383E-03	    5.81195E-02	    4.63195E-02
242.0	    6.90631E-02	    3.68875E+02	    3.92906E-02	    8.99822E-03	    3.22217E-02	    1.86213E-02
241.0	    5.08248E-02	    3.68900E+02	    5.10001E-02	    9.41572E-03	    1.77032E-02	    1.40309E-02
240.0	    4.45261E-02	    3.69025E+02	    7.80673E-02	    1.07721E-02	    4.74566E-02	    2.39168E-02
239.0	    1.21191E-01	    3.69200E+02	    8.25857E-02	    1.20083E-02	    4.68012E-02	    2.39204E-02
238.0	    9.53022E-02	    3.69425E+02	    9.80188E-02	    1.36016E-02	    1.33251E-02	    1.86324E-02
237.0	    9.09408E-02	    3.69700E+02	    1.10825E-01	    1.55460E-02	    2.60984E-02	    1.40392E-02
236.0	    1.20070E-01	    3.70025E+02	    1.14683E-01	    1.78450E-02	    2.77548E-02	    3.31429E-02
235.0	    1.36839E-01	    3.70400E+02	    1.34679E-01	    2.00268E-02	    6.21088E-02	    2.39346E-02
234.0	    1.43288E-01	    3.70875E+02	    1.39725E-01	    2.26761E-02	    2.30015E-02	    3.31527E-02
233.0	    1.36067E-01	    3.71450E+02	    1.30771E-01	    2.60330E-02	    4.88869E-02	    3.53522E-02
232.0	    1.00058E-01	    3.72050E+02	    1.02648E-01	    2.95632E-02	    5.68669E-02	    3.20087E-02
231.0	    9.23685E-02	    3.72825E+02	    8.72366E-02	    3.36236E-02	    1.36667E-02	    1.86518E-02
230.0	    5.69311E-02	    3.73625E+02	    9.31655E-02	    3.78646E-02	    5.81115E-02	    1.10575E-02
229.0	    1.21249E-01	    3.74550E+02	    1.01320E-01	    4.29862E-02	    3.22839E-02	    5.52958E-02
228.0	    1.20975E-01	    3.75475E+02	    9.53172E-02	    4.74038E-02	    5.13946E-02	    1.86601E-02
227.0	    5.72975E-02	    3.76450E+02	    7.46415E-02	    5.21705E-02	    5.49508E-02	    1.10624E-02
226.0	    1.86233E-02	    3.77450E+02	    1.86313E-02	    5.66439E-02	    2.80701E-02	    3.31921E-02
225.0	   -2.08229E-02	    3.78400E+02	   -1.72538E-02	    6.05298E-02	    1.74213E-02	    1.86684E-02
224.0	   -7.06392E-02	    3.79425E+02	   -5.30796E-02	    6.49463E-02	    4.76234E-02	    1.10673E-02
223.0	   -6.67333E-02	    3.80500E+02	   -1.01185E-01	    6.92470E-02	    8.92803E-02	    1.40684E-02
222.0	   -1.82932E-01	    3.81575E+02	   -1.67555E-01	    7.37786E-02	    8.44512E-02	    3.20562E-02
221.0	   -2.56359E-01	    3.82700E+02	   -2.47908E-01	    7.84297E-02	    4.84420E-02	    2.39843E-02
220.0	   -3.66249E-01	    3.83850E+02	   -3.67517E-01	    8.27870E-02	    6.30050E-02	    2.39879E-02
219.0	   -4.84708E-01	    3.85025E+02	   -5.10794E-01	    8.75492E-02	    5.03302E-02	    1.40767E-02
218.0	   -6.98297E-01	    3.86300E+02	   -6.87864E-01	    9.25538E-02	    7.10784E-02	    2.39950E-02
217.0	   -9.01288E-01	    3.87625E+02	   -8.78495E-01	    9.79094E-02	    7.40002E-02	    3.20800E-02
216.0	   -1.08029E+00	    3.89100E+02	   -1.08776E+00	    1.04091E-01	    9.06381E-02	    3.54414E-02
215.0	   -1.29287E+00	    3.90775E+02	   -1.30885E+00	    1.10981E-01	    4.71708E-02	    4.13512E-02
214.0	   -1.56619E+00	    3.92600E+02	   -1.55792E+00	    1.18922E-01	    4.91191E-02	    4.13573E-02
213.0	   -1.85411E+00	    3.94625E+02	   -1.84680E+00	    1.27571E-01	    6.50327E-02	    1.10853E-02
212.0	   -2.15634E+00	    3.96875E+02	   -2.16688E+00	    1.37816E-01	    7.91492E-02	    5.33489E-02
211.0	   -2.51805E+00	    3.99275E+02	   -2.51729E+00	    1.48875E-01	    1.10153E-01	    1.10886E-02
210.0	   -2.90160E+00	    4.01975E+02	   -2.90413E+00	    1.61585E-01	    7.71520E-02	    4.73527E-02
209.0	   -3.32024E+00	    4.04900E+02	   -3.31285E+00	    1.75645E-01	    8.83692E-02	    4.65535E-02
208.0	   -3.75079E+00	    4.08275E+02	   -3.75319E+00	    1.92178E-01	    1.08047E-01	    2.40305E-02
207.0	   -4.18361E+00	    4.12175E+02	   -4.20381E+00	    2.12174E-01	    8.88408E-02	    4.14002E-02
206.0	   -4.68915E+00	    4.16425E+02	   -4.66160E+00	    2.34170E-01	    6.02791E-02	    4.65742E-02
205.0	   -5.09886E+00	    4.21325E+02	   -5.12757E+00	    2.60523E-01	    4.35671E-02	    2.40412E-02
204.0	   -5.54945E+00	    4.26675E+02	   -5.55990E+00	    2.89114E-01	    6.99123E-03	    1.11001E-02
203.0	   -5.94275E+00	    4.32550E+02	   -5.92012E+00	    3.20939E-01	    3.95448E-02	    2.96935E-02
202.0	   -6.16098E+00	    4.38725E+02	   -6.17629E+00	    3.54648E-01	    7.62487E-02	    5.34278E-02
201.0	   -6.26037E+00	    4.45175E+02	   -6.25530E+00	    3.89820E-01	    7.12103E-02	    1.87348E-02
200.0	   -6.11899E+00	    4.51950E+02	   -6.09437E+00	    4.26818E-01	    2.29941E-02	    1.11067E-02
199.0	   -5.72531E+00	    4.58825E+02	   -5.68484E+00	    4.64292E-01	    1.98813E-02	    3.55306E-02
198.0	   -5.02327E+00	    4.66025E+02	   -5.04406E+00	    5.03821E-01	    1.30929E-01	    3.55358E-02
197.0	   -4.21609E+00	    4.73375E+02	   -4.24097E+00	    5.44412E-01	    9.97846E-02	    5.12914E-02
196.0	   -3.32820E+00	    4.80525E+02	   -3.31312E+00	    5.84293E-01	    7.92863E-02	    4.74508E-02
195.0	   -2.35361E+00	    4.87225E+02	   -2.32832E+00	    6.22411E-01	    6.95177E-02	    1.11149E-02
194.0	   -1.27998E+00	    4.92825E+02	   -1.30198E+00	    6.54414E-01	    1.13984E-01	    1.87542E-02
193.0	   -2.99678E-01	    4.97275E+02	   -2.60072E-01	    6.79470E-01	    1.03207E-01	    6.32705E-02
192.0	    6.34641E-01	    5.00550E+02	    6.20792E-01	    6.97181E-01	    1.87229E-01	    2.97418E-02
191.0	    1.40655E+00	    5.02850E+02	    1.28172E+00	    7.08952E-01	    1.28714E-01	    1.87625E-02
190.0	    1.65319E+00	    5.04050E+02	    1.73339E+00	    7.13892E-01	    1.59794E-02	    5.35225E-02
189.0	    1.93685E+00	    5.04150E+02	    1.97381E+00	    7.11547E-01	    7.00887E-02	    6.02254E-02
188.0	    2.06415E+00	    5.03250E+02	    2.01008E+00	    7.02840E-01	    1.36727E-01	    1.87708E-02
187.0	    1.96382E+00	    5.01675E+02	    1.92607E+00	    6.88905E-01	    1.02002E-01	    1.41434E-02
186.0	    1.62690E+00	    4.99725E+02	    1.69146E+00	    6.71852E-01	    8.85739E-02	    2.97681E-02
185.0	    1.33420E+00	    4.97575E+02	    1.33440E+00	    6.52917E-01	    1.18127E-01	    4.24428E-02
184.0	    9.76285E-01	    4.95475E+02	    9.19384E-01	    6.33630E-01	    9.86682E-02	    3.86890E-02
183.0	    4.51741E-01	    4.93575E+02	    5.02315E-01	    6.14346E-01	    4.98247E-02	    5.13974E-02
182.0	    2.72889E-02	    4.92200E+02	    4.37816E-02	    5.97347E-01	    6.92144E-02	    3.56198E-02
181.0	   -3.61185E-01	    4.91300E+02	   -4.08902E-01	    5.82297E-01	    7.07769E-02	    1.87901E-02
180.0	   -8.49794E-01	    4.91025E+02	   -8.32193E-01	    5.69304E-01	    1.25091E-01	    2.41300E-02
179.0	   -1.23696E+00	    4.91375E+02	   -1.22927E+00	    5.58601E-01	    1.61514E-01	    1.11411E-02
178.0	   -1.59231E+00	    4.92475E+02	   -1.56844E+00	    5.50840E-01	    9.94912E-02	    5.36172E-02
177.0	   -1.82988E+00	    4.94225E+02	   -1.84931E+00	    5.43902E-01	    3.95599E-02	    1.41643E-02
176.0	   -2.06213E+00	    4.96750E+02	   -2.10230E+00	    5.39146E-01	    1.18696E-01	    5.57304E-02
175.0	   -2.31180E+00	    5.00450E+02	   -2.28543E+00	    5.37270E-01	    1.14893E-01	    3.87403E-02
174.0	   -2.42345E+00	    5.05650E+02	   -2.36939E+00	    5.36098E-01	    1.56418E-02	    1.41705E-02
173.0	   -2.35502E+00	    5.13375E+02	   -2.38362E+00	    5.37451E-01	    1.01702E-01	    3.34529E-02
172.0	   -2.23594E+00	    5.24775E+02	   -2.28327E+00	    5.41456E-01	    8.06937E-02	    3.56722E-02
171.0	   -2.22127E+00	    5.41875E+02	   -2.19486E+00	    5.49459E-01	    5.62518E-02	    5.36725E-02
170.0	   -1.93023E+00	    5.68350E+02	   -1.95519E+00	    5.60348E-01	    2.53453E-01	    6.58539E-02
169.0	   -1.79909E+00	    6.08575E+02	   -1.54924E+00	    5.73932E-01	    1.50705E-01	    8.42374E-02
168.0	   -1.03441E+00	    6.72300E+02	   -1.34510E+00	    5.92233E-01	    4.70193E-01	    1.88261E-02
167.0	   -8.37967E-01	    7.74825E+02	   -6.49290E-01	    6.25352E-01	    4.25827E-01	    7.09254E-02
166.0	   -1.27721E+00	    9.34450E+02	   -9.50771E-01	    6.88109E-01	    7.68639E-01	    5.80816E-01
165.0	    2.36936E-03	    1.12643E+03	   -1.69159E+00	    8.00394E-01	    1.21121E+00	    1.15622E+00
164.0	   -3.81655E+00	    1.21828E+03	   -2.87195E+00	    9.21914E-01	    1.99810E+00	    2.84134E+00
